Title: Chronicling the Host Galaxy Properties of the 
       Remarkable Repeating FRB 20201124A
Authors: Fong W.-F., Dong Y., Leja J., Bhandari S., Day C.K., Deller A.T., 
         Kumar P., Prochaska J.X., Scott D.R., Bannister K.W., Eftekhari T.,
         Gordon A.C., Heintz K.E., James C.W., Kilpatrick C.D., Mahony E.K.,
         Escorial A.R., Ryder S.D., Shannon R.M., Tejos N. 
Figure: MMT/Binospec spectroscopy of the putative host galaxy of FRB 20201124A
================================================================================
Byte-by-byte Description of file: dbf3.txt
--------------------------------------------------------------------------------
   Bytes Format Units          Label  Explanations
--------------------------------------------------------------------------------
   1- 10 F10.5  0.1nm          Wave   Wavelength; Angstroms
  12- 19 F8.5   10-16W/m2/nm   Flux   Flux; 1e-17 erg/s/cm^2^/A
  21- 27 F7.5   10-16W/m2/nm e_Flux   Uncertainty in Flux;  1e-17 erg/s/cm^2^/A
--------------------------------------------------------------------------------
3827.47790  0.36295 0.81770 
3828.76101  1.35330 0.83875 
3830.04413  1.05379 0.83769 
3831.32728  1.69807 0.84146 
3832.61045  1.42518 0.81949 
3833.89364  0.55202 0.81307 
3835.17685  1.10672 0.80395 
3836.46008 -0.40638 0.79358 
3837.74333  0.92497 0.79467 
3839.02660  2.05211 0.78373 
3840.30989  0.56349 0.77745 
3841.59320  0.08455 0.79661 
3842.87653  0.82182 0.83614 
3844.15989  0.27999 0.84066 
3845.44326  1.45531 0.85634 
3846.72665  1.36218 0.85735 
3848.01007  1.29510 0.84770 
3849.29351 -0.52059 0.82929 
3850.57696  2.05215 0.83388 
3851.86044  2.21801 0.84165 
3853.14394  2.41422 0.83963 
3854.42746 -0.40115 0.82184 
3855.71099  0.29233 0.82236 
3856.99455  1.23783 0.80359 
3858.27813  1.62511 0.79028 
3859.56173  2.78489 0.78342 
3860.84535 -0.04054 0.78042 
3862.12900  0.55936 0.79773 
3863.41266  1.43356 0.82834 
3864.69634 -0.17717 0.83163 
3865.98004  2.37979 0.83074 
3867.26377 -1.28570 0.81205 
3868.54751  0.84979 0.80826 
3869.83128  0.56291 0.78244 
3871.11506  0.59141 0.76508 
3872.39887  1.61918 0.77231 
3873.68269  1.59984 0.78636 
3875.60863 -0.36343 0.57975 
3877.53429  2.75749 0.80950 
3878.81820  2.57935 0.80678 
3880.10213  0.11540 0.77778 
3881.38608 -0.41033 0.78052 
3882.67005  0.82898 0.80157 
3883.95403  1.68736 0.80563 
3885.23804  1.71867 0.80562 
3886.52208  1.89487 0.81303 
3887.80613  1.46955 0.78362 
3889.09020  1.53050 0.78963 
3890.37429  0.11561 0.80325 
3891.65840  0.21857 0.81950 
3892.94253  2.21847 0.82802 
3894.22668  1.12440 0.83208 
3895.51086  0.18232 0.83865 
3896.79505  0.86838 0.84110 
3898.07926 -0.07132 0.83195 
3899.36350  0.12154 0.83315 
3900.64775  0.36559 0.82384 
3901.93203 -0.10567 0.83128 
3903.21632  0.99400 0.82626 
3904.50064  1.15767 0.82318 
3905.78497  1.71380 0.83737 
3907.06933  0.23220 0.85663 
3908.35370  1.47434 0.86542 
3909.63810  0.83246 0.88474 
3910.92252  2.07705 0.92424 
3912.20695  2.52413 0.98307 
3913.49141  1.53648 1.00641 
3914.77589  1.43395 0.96909 
3916.06039 -1.47564 0.91354 
3917.34490  2.76985 0.82656 
3918.62944  0.78313 0.77016 
3919.91400 -0.51785 0.75186 
3921.19858 -0.42324 0.73686 
3922.48318  0.51078 0.72904 
3923.76780  1.16865 0.73380 
3925.05244  1.62824 0.73789 
3926.33710  1.63043 0.70711 
3928.26448  0.66888 0.47233 
3930.19119  1.31191 0.63597 
3931.47593  0.57512 0.60260 
3932.76069  0.55236 0.57755 
3934.04547  1.77736 0.59042 
3935.33028  0.74289 0.57793 
3936.61510  1.24327 0.59965 
3937.89994  1.79939 0.63009 
3939.18480  1.07200 0.65789 
3940.46968  1.44881 0.68777 
3941.75458  2.04464 0.70875 
3943.03950  0.01250 0.69163 
3944.32444  1.13033 0.70291 
3945.60940  1.81852 0.70598 
3946.89438  1.70570 0.72899 
3948.17939  2.50058 0.73715 
3949.46441  1.44502 0.74178 
3950.74945  1.05921 0.73570 
3952.03451  0.14953 0.72331 
3953.31959  1.10030 0.73326 
3954.60469  2.33206 0.72412 
3955.88982  1.38387 0.72504 
3957.17496  2.38496 0.72801 
3958.46012  2.33127 0.72025 
3959.74530  1.23443 0.70553 
3961.03050  0.94857 0.68197 
3962.31573  0.60061 0.65831 
3963.60097  0.55380 0.62782 
3964.88623  0.70089 0.61826 
3966.17151  0.12427 0.57881 
3967.45682  1.09095 0.55749 
3968.74214 -0.13376 0.54134 
3970.03019 -5.51174 0.53101 
3971.31284 -0.27549 0.56663 
3972.59822  0.65898 0.59551 
3973.88363  0.99560 0.63422 
3975.16905  0.21043 0.65144 
3976.45449  0.90667 0.66882 
3977.73995 -0.07397 0.68743 
3979.02543  1.73975 0.70553 
3980.61971  0.75464 0.59272 
3982.36222  1.80381 0.56970 
3984.17026  3.60191 0.93283 
3985.45314  2.45084 0.71275 
3986.73875  1.45821 0.71150 
3988.02437  1.14835 0.71548 
3989.31001  0.55579 0.72680 
3990.59567  1.34126 0.73094 
3991.87940  3.10866 0.84320 
3993.16705  0.29022 0.72858 
3994.45277  0.85851 0.72865 
3995.73852  0.80266 0.71487 
3997.02428  1.20679 0.70742 
3998.31006  0.74602 0.71157 
3999.59586  0.96843 0.71791 
4000.88168  0.24412 0.72204 
4002.16752  2.63543 0.73042 
4003.45338  2.25486 0.72138 
4004.73926  1.30879 0.69981 
4006.02516  1.76497 0.69257 
4007.31108  0.81127 0.70203 
4008.59702  1.35903 0.70919 
4009.88298  1.71878 0.72500 
4011.16896  0.80678 0.72495 
4012.45496 -0.47800 0.71675 
4013.74098  0.53794 0.72039 
4015.02702  1.04205 0.71544 
4016.31308  2.47310 0.72028 
4017.59916  1.64291 0.71487 
4018.88526  1.85217 0.71865 
4020.17138  1.45823 0.72104 
4021.45752  1.44824 0.73020 
4022.74368  3.02167 0.73354 
4024.02985  0.49135 0.71134 
4025.31605  2.31353 0.71586 
4026.60227  0.95392 0.71585 
4027.88851 -0.15430 0.71287 
4029.17477  0.90723 0.70615 
4030.46104  1.86396 0.69140 
4031.74734  0.70240 0.67507 
4033.03366  0.78693 0.66481 
4034.32000  2.47802 0.67449 
4036.10407  1.70330 0.50778 
4037.83549  1.63782 0.63710 
4039.46554  3.19048 0.70804 
4040.75198  1.01068 0.70040 
4042.03843  0.90017 0.69649 
4043.32491  1.98003 0.69083 
4044.61140 -0.10961 0.69697 
4045.89792  0.85802 0.72590 
4047.18445  1.98635 0.73839 
4048.47101  0.40159 0.73657 
4049.75758  1.82176 0.72119 
4051.04418  2.75421 0.69482 
4052.33079  0.52495 0.68089 
4053.61742  0.93890 0.67225 
4054.90430  1.16685 0.64609 
4056.19095  0.89691 0.64619 
4057.47742  0.25555 0.62977 
4058.76392 -0.25634 0.62453 
4060.05018  2.35310 0.63927 
4061.33694  0.87707 0.63497 
4062.62384  1.60194 0.64009 
4063.91075  0.69538 0.63421 
4065.19801  1.36794 0.64179 
4066.48484  2.22593 0.65046 
4067.77169  1.72779 0.66729 
4069.05856  0.31478 0.66143 
4070.34545  1.20538 0.65799 
4071.63236  0.54695 0.64548 
4072.91929  0.87925 0.64400 
4074.20624  1.52401 0.64719 
4075.49320 -0.11118 0.64782 
4076.78019  1.60833 0.64777 
4078.06720  1.33094 0.63994 
4079.35422  0.90904 0.64081 
4080.64127  2.04796 0.66082 
4081.92834  1.12714 0.65815 
4083.21542  1.72713 0.64735 
4084.50253  0.41156 0.63564 
4085.78965  0.79821 0.64016 
4087.07679  2.02420 0.65063 
4088.36396  2.48315 0.66104 
4089.65114  3.25441 0.65862 
4090.93834  3.77933 0.66306 
4092.22556  3.74917 0.65695 
4094.24633 -1.29499 0.68175 
4096.08735  2.85229 0.63381 
4097.37465  1.32696 0.61892 
4098.66197 -0.02595 0.60901 
4099.94930  1.31061 0.59165 
4101.23666  1.44757 0.58248 
4102.52404  0.41896 0.56937 
4103.81144  0.96899 0.57836 
4105.09885  0.38908 0.59185 
4106.38629  1.08172 0.60407 
4107.67375  0.47991 0.61013 
4108.96122  0.88675 0.60810 
4110.24872  2.31511 0.62106 
4111.53623  1.06263 0.61772 
4112.82376  1.59301 0.62083 
4114.11131  0.22268 0.61941 
4115.39889  0.08534 0.62678 
4116.68648  1.20146 0.62364 
4117.97409  1.44780 0.61995 
4119.26172  0.66078 0.61364 
4120.54937 -0.24193 0.60963 
4121.83704 -0.16520 0.61522 
4123.12472  1.04228 0.62540 
4124.41243  1.09189 0.61818 
4125.70016  2.15136 0.61795 
4126.98790  1.27950 0.61282 
4128.27567  1.46008 0.61059 
4129.56346  0.68153 0.60485 
4130.85126  1.54639 0.59976 
4132.13908  1.74638 0.59653 
4133.42693  0.76434 0.58855 
4134.71479  1.37890 0.59564 
4136.00267  2.59429 0.60757 
4137.29057  0.52176 0.61300 
4138.57849  1.63035 0.61810 
4139.86643  0.77467 0.62097 
4141.15439  0.80099 0.61249 
4142.44236  2.30363 0.59899 
4143.73036  1.52530 0.58758 
4145.01838  2.36807 0.59251 
4146.30641  1.10511 0.59467 
4147.59447  2.54807 0.60206 
4148.88254  3.28111 0.60721 
4150.17063  1.27772 0.60078 
4152.10383  0.60759 0.41818 
4154.03503  2.31349 0.60633 
4155.32320  0.61412 0.58789 
4156.61139  1.29784 0.59148 
4157.89960  1.64675 0.59850 
4159.18782  1.83073 0.59402 
4160.47607  0.48193 0.60482 
4161.76434  0.46453 0.60357 
4163.05262  0.27121 0.61367 
4164.34093  0.16241 0.62273 
4165.62925  0.79167 0.61935 
4166.91759  1.37644 0.60941 
4168.20596  0.66406 0.60325 
4169.49434  1.86620 0.60709 
4170.78274  1.98703 0.59722 
4172.07116  0.93718 0.58240 
4173.35960  0.73828 0.57008 
4174.64805  0.79777 0.56945 
4175.93653  0.80611 0.57419 
4177.22503  0.87279 0.57873 
4178.51354  2.99915 0.58692 
4179.80208  1.65031 0.58522 
4181.09063  0.62556 0.57595 
4182.37921  2.84017 0.57764 
4183.66780  1.45832 0.57617 
4184.95641  1.34549 0.56997 
4186.24504 -0.06223 0.56180 
4187.53369  1.55683 0.56404 
4188.82236  1.61433 0.56606 
4190.11105  1.32703 0.56464 
4191.39975  0.76899 0.57355 
4192.68848  2.03441 0.58639 
4193.97722  1.57976 0.57126 
4195.26599  2.15977 0.57673 
4196.55477  0.92303 0.55739 
4197.84357  1.08948 0.55126 
4199.13240  1.34450 0.55596 
4200.42124  1.37970 0.55184 
4201.71010  1.99564 0.55563 
4202.99898  0.81356 0.54884 
4204.28787  1.54638 0.55606 
4205.57679  0.42863 0.55684 
4206.86573  1.75310 0.56902 
4208.15468  0.80213 0.57114 
4209.44366  0.26394 0.56702 
4211.07598  0.45705 0.46745 
4212.81152  0.80004 0.45103 
4214.59974  0.43177 0.55501 
4215.88881  1.24201 0.55788 
4217.17790  0.94599 0.55433 
4218.46701  1.75322 0.55777 
4219.75614  2.21425 0.56115 
4221.04528  1.80791 0.56367 
4222.33445  1.53661 0.55955 
4223.62363  1.57295 0.55118 
4224.91283  1.91504 0.53511 
4226.20206  1.45890 0.52145 
4227.49130  2.51151 0.52255 
4228.78056  1.53639 0.52961 
4230.06984  0.74431 0.55027 
4231.35913  1.79673 0.56793 
4232.64845  2.35512 0.56725 
4233.93779  0.69664 0.56447 
4235.22714  1.04615 0.55851 
4236.51652  1.61610 0.55227 
4237.80591  0.55945 0.54730 
4239.09532  2.47017 0.54626 
4240.38475  2.01071 0.54926 
4241.67420  1.83674 0.54560 
4242.96367  1.42636 0.54733 
4244.25316  2.29134 0.55624 
4245.54266  2.06616 0.56201 
4246.83219  2.26329 0.56072 
4248.12173  1.55640 0.55572 
4249.41129  1.31445 0.53642 
4250.70088  1.42696 0.54217 
4251.99048  1.50067 0.54373 
4253.28010  1.76784 0.55003 
4254.56974  1.49372 0.55616 
4255.85939  1.03861 0.54813 
4257.14907  1.55546 0.55178 
4258.43876  0.22715 0.54662 
4259.72848  1.46260 0.53501 
4261.01821  0.61772 0.53145 
4262.30796  1.20912 0.54157 
4263.59773  0.61735 0.54688 
4264.88752  1.74380 0.56031 
4266.17733  1.70045 0.56499 
4267.46716  1.33295 0.55704 
4268.75700  1.65002 0.55592 
4270.04687  1.58861 0.54072 
4271.33675  0.79579 0.52560 
4272.62665  0.39474 0.51730 
4274.56255  1.71712 0.38058 
4276.49647  1.21895 0.56496 
4277.78645  1.14448 0.56969 
4279.07645  0.97575 0.56012 
4280.36646  1.37532 0.54418 
4281.65650  1.59788 0.52415 
4282.94655  0.88759 0.53030 
4284.23662  0.42934 0.52630 
4285.52671  1.28914 0.52215 
4286.81682  1.16378 0.52069 
4288.10695  2.13589 0.51451 
4289.39709  2.09121 0.50986 
4290.68726  2.25506 0.50771 
4291.97744  1.84931 0.51630 
4293.26764  0.56657 0.52187 
4294.55786  1.70340 0.52809 
4295.84810  1.84595 0.52432 
4297.13836  2.04880 0.51021 
4298.42864  2.08366 0.49471 
4299.71893  0.71010 0.48265 
4301.00925  2.28244 0.48655 
4302.29958  2.39565 0.47865 
4303.58993  2.61588 0.48354 
4304.88030  1.14297 0.47825 
4306.17069  1.64826 0.47810 
4307.46110  1.93695 0.47402 
4308.75152  1.70236 0.47734 
4310.04197  1.71448 0.47224 
4311.33243  1.59100 0.48378 
4312.62291  0.35537 0.49825 
4313.91341  2.26468 0.51366 
4315.20393  1.47475 0.53184 
4316.49447  1.52971 0.54163 
4317.78502  0.93322 0.54807 
4319.07560  1.34714 0.54690 
4320.36619  0.35121 0.54273 
4321.65680  0.85785 0.53927 
4322.94743  0.98837 0.52373 
4324.23808  0.92002 0.50226 
4325.52875  2.59031 0.50173 
4326.81944  0.98308 0.50347 
4328.11014  0.78737 0.51614 
4329.40087  2.85431 0.53462 
4330.69161  2.77697 0.54138 
4331.98237  1.54829 0.53359 
4333.27315  1.08416 0.53045 
4334.56394  1.34037 0.53228 
4335.85476  1.62471 0.52856 
4337.14559  2.27219 0.51768 
4339.08297  1.92132 0.35309 
4341.01821  1.33483 0.49495 
4342.30912  1.17107 0.49081 
4343.60004  2.04032 0.50725 
4344.89099  2.72908 0.51649 
4346.18195  1.45576 0.52585 
4347.47294  0.92836 0.52955 
4348.76394  2.18281 0.53064 
4350.05496 -0.07754 0.52378 
4351.34599  1.70533 0.51228 
4352.63705  3.00230 0.51401 
4353.92812  1.16014 0.51087 
4355.21922  1.18508 0.53189 
4356.51033  2.00259 0.61493 
4357.80146  1.01946 0.67219 
4359.09261  1.79399 0.69559 
4360.38377  1.35610 0.66293 
4361.67496  1.64123 0.58854 
4362.96616  0.38924 0.54398 
4364.25739  1.47750 0.54134 
4365.54863  1.52455 0.53586 
4366.83989 -0.10061 0.53113 
4368.13116  1.87166 0.53542 
4369.42246  1.30201 0.52964 
4370.71377  1.86161 0.52938 
4372.00510  0.68607 0.53090 
4373.29646  2.61675 0.52909 
4374.58782  1.98028 0.52751 
4375.87921  2.27084 0.53114 
4377.17062  2.08490 0.52554 
4378.46204  2.38430 0.53722 
4379.75349  2.73450 0.53219 
4381.04495  2.95019 0.53172 
4382.33643  2.30836 0.50884 
4383.62792  2.26320 0.49715 
4384.91944  2.15923 0.49150 
4386.21097  1.05096 0.49569 
4387.50253  1.88983 0.51077 
4388.79410  2.08581 0.50901 
4390.08569  1.99007 0.51224 
4391.37729  1.01428 0.50439 
4392.66892  2.01423 0.51563 
4393.96056  1.29245 0.51050 
4395.25223  1.73434 0.51532 
4396.54391  1.07198 0.51255 
4397.83561  1.66058 0.52653 
4399.12732  2.07996 0.52660 
4400.41906  2.56287 0.52121 
4401.71081  1.10234 0.52246 
4403.00258  1.50245 0.51922 
4404.29437  1.74661 0.51494 
4406.23310  1.57434 0.36896 
4408.16985  1.73430 0.52919 
4409.46172  2.48696 0.53841 
4410.75360  2.77986 0.54587 
4412.04550  2.35315 0.55024 
4413.33742  2.21245 0.54375 
4414.62935  1.91558 0.54218 
4415.92131  1.60888 0.53596 
4417.21328  2.29357 0.53780 
4418.50527  1.55151 0.54257 
4419.79728  1.74636 0.54734 
4421.08931  2.43743 0.54528 
4422.38135  0.62774 0.53850 
4423.67342  2.83935 0.53995 
4424.96550  0.83344 0.53591 
4426.25760  1.16650 0.53565 
4427.54972  0.70809 0.53492 
4428.84185  1.93235 0.53478 
4430.13401  1.28316 0.53497 
4431.42618  2.99714 0.53830 
4432.71837  1.41624 0.52763 
4434.01058  1.87565 0.52875 
4435.30281  2.14951 0.52542 
4436.59505  2.27089 0.52857 
4437.88731  1.08712 0.53853 
4439.17960  1.75573 0.54118 
4440.47189  2.30225 0.53809 
4441.76421  2.33108 0.52994 
4443.05655  0.81167 0.51879 
4444.34890  0.84182 0.52534 
4445.64127  3.30621 0.53726 
4446.93366  2.12865 0.53970 
4448.22607  0.62082 0.53033 
4449.51850  2.49324 0.53129 
4450.81094  2.00127 0.53372 
4452.10340  2.20671 0.52980 
4453.39589  1.11629 0.51854 
4454.68838  2.15319 0.51685 
4455.98090  2.08508 0.51176 
4457.27344  2.29349 0.51224 
4458.56599  1.68194 0.51490 
4459.85856  0.96134 0.51277 
4461.15115  1.24106 0.51294 
4462.44375  1.89746 0.52067 
4463.73638  0.95797 0.51714 
4465.02902  2.01032 0.52782 
4466.32103  1.16906 0.51932 
4467.61370  1.24527 0.51217 
4468.90640  2.98247 0.51373 
4470.19897  1.86675 0.50790 
4471.49170  2.21296 0.51055 
4472.78470  1.10838 0.51666 
4474.07747  1.25934 0.51678 
4476.01759  2.55150 0.36945 
4477.95599  2.25302 0.51754 
4479.24894  0.82566 0.50936 
4480.54180  1.76519 0.50378 
4481.83468  0.72456 0.49948 
4483.12771  1.39401 0.50576 
4484.42083  2.70112 0.53442 
4485.71376  2.73773 0.53358 
4487.00670  1.48840 0.53680 
4488.29967  1.66758 0.52712 
4489.59266  3.05402 0.52940 
4490.88566  2.74555 0.52639 
4492.17868  2.14480 0.53245 
4493.47172  2.50502 0.52934 
4494.76477  1.89708 0.52727 
4496.05785  2.74234 0.53541 
4497.35094  1.55081 0.52632 
4498.64405  1.04941 0.52892 
4499.93718  1.56974 0.52872 
4501.23032  1.57169 0.52736 
4502.52349  2.33029 0.53083 
4503.81667  2.08446 0.53627 
4505.10987  1.78370 0.53802 
4506.40308  1.78766 0.53588 
4507.69632  0.60525 0.53194 
4508.98957  1.68798 0.53388 
4510.28284  1.92832 0.53716 
4511.57613  1.34493 0.53219 
4512.86944  1.85207 0.52850 
4514.16276  1.90893 0.52629 
4515.45610  1.37162 0.52491 
4516.74946  2.74436 0.52875 
4518.04284  1.56013 0.51969 
4519.33654 -0.96334 0.62264 
4520.62965  1.37679 0.52820 
4521.92308  2.47349 0.52929 
4523.21653  2.32426 0.52490 
4524.51000  1.37956 0.52074 
4525.80348  2.04451 0.52013 
4527.09698  2.27297 0.51301 
4528.39051  3.04761 0.51353 
4529.68404  1.37372 0.51221 
4530.97760  0.92020 0.50890 
4532.27117  1.63626 0.51327 
4533.56476  1.91018 0.51681 
4534.85837  1.85897 0.51049 
4536.15200  2.71849 0.52082 
4537.44564  1.96040 0.52581 
4538.73931  2.56590 0.52790 
4540.03299  1.42398 0.52269 
4541.32668  1.45092 0.52181 
4542.62040  1.71286 0.52410 
4543.91413  2.34791 0.52242 
4545.20788  2.69604 0.52259 
4546.50165  1.90363 0.51143 
4548.44330  1.69788 0.36163 
4550.38307  1.93671 0.50716 
4551.67691  1.64227 0.50682 
4552.97076  2.24216 0.51365 
4554.26464  2.51530 0.51140 
4555.55853  2.86646 0.51014 
4556.85244  2.53843 0.50954 
4558.14637  2.12855 0.51347 
4559.44032  2.76193 0.51616 
4560.73428  2.31740 0.51662 
4562.02826  3.04268 0.51715 
4563.32226  3.58311 0.51393 
4564.61628  1.96351 0.50614 
4565.91031  1.87452 0.50367 
4567.20436  2.22749 0.51027 
4568.49843  1.35612 0.50707 
4569.79252  1.76524 0.50883 
4571.08662  1.02940 0.50304 
4572.38075  2.13536 0.50492 
4573.67489  2.49460 0.50136 
4574.96904  2.77519 0.50413 
4576.26322  2.05055 0.51124 
4577.55741  2.69553 0.50530 
4578.85162  2.01411 0.50445 
4580.14585  2.26315 0.49915 
4581.44010  2.34569 0.49654 
4582.73436  2.54350 0.49634 
4584.02864  2.23893 0.49280 
4585.32294  2.40325 0.49278 
4586.61726  1.60052 0.49327 
4587.91159  1.67292 0.49515 
4589.20594  1.78806 0.49595 
4590.50031  2.26713 0.49693 
4591.79470  1.80814 0.49109 
4593.08911  2.12740 0.49683 
4594.38353  0.93388 0.48609 
4595.67797  2.68198 0.49415 
4596.97243  2.35639 0.48834 
4598.26690  2.26593 0.49056 
4599.56139  3.20948 0.48968 
4600.85590  1.08960 0.48189 
4602.15043  2.35512 0.48140 
4603.44498  2.47976 0.48033 
4604.73954  2.60120 0.48187 
4606.03412  2.57026 0.48326 
4607.32872  1.84529 0.48411 
4608.62333  0.87495 0.48495 
4609.91797  1.46567 0.48699 
4611.21262  1.78021 0.48958 
4612.50728  2.14154 0.48942 
4613.80197  1.53135 0.48500 
4615.09667  2.15332 0.48457 
4616.39139  1.68130 0.48212 
4617.68613  2.04576 0.48220 
4618.98089  2.61771 0.48575 
4620.27566  2.56024 0.48967 
4621.57045  2.18657 0.48701 
4622.86526  1.70167 0.48356 
4624.80843  2.01213 0.34136 
4626.74979  1.27517 0.48376 
4628.04467  3.24064 0.48292 
4629.33956  1.64466 0.47839 
4630.63448  3.08107 0.47977 
4631.92941  1.47205 0.47632 
4633.22436  3.15728 0.48143 
4634.51932  1.99844 0.48224 
4635.81431  2.49228 0.47446 
4637.10931  2.10226 0.47183 
4638.40433  3.02046 0.47626 
4639.69936  2.05452 0.46896 
4640.99441  2.66866 0.47545 
4642.28948  1.59965 0.47332 
4643.58457  3.26642 0.47676 
4644.87968  2.43229 0.47277 
4646.17480  1.77517 0.46829 
4647.46994  2.14961 0.46014 
4648.76510  2.71149 0.46740 
4650.06028  2.33279 0.47236 
4651.35547  2.92179 0.47642 
4652.65068  1.59732 0.47067 
4653.94591  2.09737 0.47220 
