wavelength       flux
3200.00     0.358719
3202.00    0.0889482
3204.00    0.0497042
3206.00    -0.186613
3208.00    -0.347598
3210.00    -0.338456
3212.00    -0.128998
3214.00    0.0171724
3216.00     0.232430
3218.00     0.281540
3220.00     0.121584
3222.00     0.291413
3224.00     0.382034
3226.00     0.393175
3228.00     0.517486
3230.00     0.400457
3232.00   -0.0931775
3234.00    -0.434624
3236.00    -0.523373
3238.00    -0.391506
3240.00    -0.302529
3242.00   -0.0175190
3244.00   -0.0651551
3246.00    0.0331549
3248.00   -0.0215011
3250.00    -0.166227
3252.00    -0.264183
3254.00   -0.0590361
3256.00    -0.119470
3258.00    -0.281868
3260.00    -0.484933
3262.00    -0.579367
3264.00    -0.865483
3266.00     -1.07565
3268.00     -1.00547
3270.00    -0.878703
3272.00    -0.689442
3274.00    -0.380721
3276.00    -0.147147
3278.00    -0.428995
3280.00    -0.485791
3282.00    -0.384235
3284.00    -0.319164
3286.00    -0.603330
3288.00    -0.480041
3290.00    -0.131491
3292.00    -0.248901
3294.00    -0.617036
3296.00    -0.441884
3298.00    -0.511582
3300.00    -0.923058
3302.00     -1.03028
3304.00    -0.915800
3306.00    -0.889309
3308.00    -0.730396
3310.00    -0.542223
3312.00    -0.549706
3314.00    -0.527174
3316.00    -0.528847
3318.00    -0.363988
3320.00    -0.393881
3322.00    -0.257343
3324.00    -0.242730
3326.00    -0.132675
3328.00    -0.303378
3330.00    -0.272313
3332.00    -0.368751
3334.00    -0.215156
3336.00    -0.159991
3338.00   -0.0734383
3340.00    -0.232821
3342.00    -0.191341
3344.00   -0.0875191
3346.00   -0.0555162
3348.00    -0.148902
3350.00   0.00733715
3352.00   -0.0928210
3354.00    -0.420759
3356.00    -0.467942
3358.00    -0.499082
3360.00    -0.470002
3362.00    -0.422879
3364.00    -0.344421
3366.00    -0.645579
3368.00    -0.779889
3370.00    -0.943026
3372.00    -0.911429
3374.00    -0.837759
3376.00    -0.457135
3378.00    -0.466674
3380.00    -0.317888
3382.00    -0.278261
3384.00    -0.229952
3386.00    -0.389651
3388.00    -0.410537
3390.00    -0.357197
3392.00    -0.429012
3394.00    -0.430501
3396.00    -0.480139
3398.00    -0.316780
3400.00    0.0693147
3402.00     0.399256
3404.00      2.16113
3406.00      2.53940
3408.00      5.30757
3410.00      11.7283
3412.00      12.0429
3414.00      15.5730
3416.00      24.0965
3418.00      25.3535
3420.00      18.2773
3422.00      21.1242
3424.00      25.6349
3426.00      24.9639
3428.00      27.6542
3430.00      31.6791
3432.00      29.0980
3434.00      25.6971
3436.00      24.8923
3438.00      28.4257
3440.00      34.3739
3442.00      44.6687
3444.00      48.0925
3446.00      46.7558
3448.00      36.8963
3450.00      28.3072
3452.00      26.4813
3454.00      28.8582
3456.00      28.3326
3458.00      33.8478
3460.00      42.2401
3462.00      43.1419
3464.00      43.8246
3466.00      43.7561
3468.00      45.4370
3470.00      39.5339
3472.00      31.9136
3474.00      20.2979
3476.00      13.9776
3478.00      15.3097
3480.00      22.7587
3482.00      33.1325
3484.00      44.6414
3486.00      48.8382
3488.00      41.2067
3490.00      32.6346
3492.00      31.8280
3494.00      26.3591
3496.00      29.3757
3498.00      40.2730
3500.00      46.8118
3502.00      48.3171
3504.00      47.4350
3506.00      46.6188
3508.00      43.0184
3510.00      41.7177
3512.00      41.1512
3514.00      41.1380
3516.00      37.9294
3518.00      30.4271
3520.00      23.9761
3522.00      20.2102
3524.00      20.2654
3526.00      25.0536
3528.00      31.3567
3530.00      41.4051
3532.00      46.4498
3534.00      45.8361
3536.00      44.2030
3538.00      49.2168
3540.00      51.5649
3542.00      50.9549
3544.00      51.4840
3546.00      57.9288
3548.00      58.5097
3550.00      53.7060
3552.00      43.4450
3554.00      39.4745
3556.00      33.3185
3558.00      27.1504
3560.00      28.5209
3562.00      39.6550
3564.00      47.2404
3566.00      45.0577
3568.00      44.7813
3570.00      42.7541
3572.00      36.6451
3574.00      34.9934
3576.00      42.1012
3578.00      47.9257
3580.00      51.0714
3582.00      53.5541
3584.00      51.3960
3586.00      45.8089
3588.00      44.0342
3590.00      39.1789
3592.00      39.8904
3594.00      42.8411
3596.00      49.5242
3598.00      49.1333
3600.00      49.5300
3602.00      40.5803
3604.00      29.4006
3606.00      20.5002
3608.00      19.2750
3610.00      23.1308
3612.00      30.7824
3614.00      39.1533
3616.00      47.6608
3618.00      45.4215
3620.00      35.4784
3622.00      33.7382
3624.00      36.7220
3626.00      37.2409
3628.00      41.6836
3630.00      52.0482
3632.00      56.5917
3634.00      54.3473
3636.00      52.9927
3638.00      51.6698
3640.00      52.0128
3642.00      49.3477
3644.00      43.6472
3646.00      43.1168
3648.00      41.5301
3650.00      36.8921
3652.00      38.5730
3654.00      44.4405
3656.00      39.4089
3658.00      39.4231
3660.00      40.8878
3662.00      36.6493
3664.00      28.3592
3666.00      30.7814
3668.00      24.8955
3670.00      24.3870
3672.00      26.2752
3674.00      31.7042
3676.00      35.3347
3678.00      37.3123
3680.00      31.8752
3682.00      27.1090
3684.00      28.6101
3686.00      22.1014
3688.00      21.9854
3690.00      29.5820
3692.00      34.0780
3694.00      34.8066
3696.00      39.1709
3698.00      44.0342
3700.00      44.8584
3702.00      47.2986
3704.00      47.3690
3706.00      50.3532
3708.00      50.4553
3710.00      51.0381
3712.00      51.3547
3714.00      51.0137
3716.00      49.2603
3718.00      49.8544
3720.00      48.5431
3722.00      46.9236
3724.00      47.4831
3726.00      49.0689
3728.00      47.6313
3730.00      47.8014
3732.00      49.2312
3734.00      49.5012
3736.00      49.5451
3738.00      50.0538
3740.00      48.7133
3742.00      47.7725
3744.00      44.4993
3746.00      42.3334
3748.00      37.2914
3750.00      33.1958
3752.00      31.5432
3754.00      35.0600
3756.00      37.7750
3758.00      41.8146
3760.00      41.3179
3762.00      40.1864
3764.00      38.5442
3766.00      37.3161
3768.00      32.6003
3770.00      31.1613
3772.00      29.9877
3774.00      29.4491
3776.00      24.9596
3778.00      24.4236
3780.00      30.5252
3782.00      34.8164
3784.00      34.0961
3786.00      31.1050
3788.00      28.2594
3790.00      21.4531
3792.00      16.7446
3794.00      15.1821
3796.00      15.9084
3798.00      16.3133
3800.00      15.1085
3802.00      11.5997
3804.00      7.30791
3806.00      7.43119
3808.00      10.0194
3810.00      17.5418
3812.00      26.6677
3814.00      35.3052
3816.00      39.3133
3818.00      36.5106
3820.00      37.2785
3822.00      35.8072
3824.00      32.2862
3826.00      32.9286
3828.00      41.0499
3830.00      43.2993
3832.00      45.4822
3834.00      50.3704
3836.00      52.0637
3838.00      50.1761
3840.00      42.7700
3842.00      35.3839
3844.00      30.2646
3846.00      26.4875
3848.00      26.2895
3850.00      30.4344
3852.00      33.4822
3854.00      33.6806
3856.00      34.1508
3858.00      35.2949
3860.00      38.5176
3862.00      43.6655
3864.00      47.7825
3866.00      51.5297
3868.00      51.7743
3870.00      52.0124
3872.00      52.3518
3874.00      53.1076
3876.00      53.7910
3878.00      54.5024
3880.00      54.5205
3882.00      53.9769
3884.00      52.5634
3886.00      51.3972
3888.00      50.5513
3890.00      49.1079
3892.00      49.0399
3894.00      49.3476
3896.00      50.4305
3898.00      50.7979
3900.00      50.5638
3902.00      49.4589
3904.00      48.0582
3906.00      46.9861
3908.00      47.0521
3910.00      48.5195
3912.00      49.9515
3914.00      51.8745
3916.00      51.8358
3918.00      50.1290
3920.00      47.1672
3922.00      41.1916
3924.00      32.5782
3926.00      31.6736
3928.00      33.1483
3930.00      34.9474
3932.00      40.5971
3934.00      49.3776
3936.00      51.7052
3938.00      49.4576
3940.00      47.2395
3942.00      46.5717
3944.00      46.3548
3946.00      46.7854
3948.00      49.1967
3950.00      51.9732
3952.00      53.0060
3954.00      52.5548
3956.00      52.4186
3958.00      52.4165
3960.00      52.2364
3962.00      51.9661
3964.00      51.3858
3966.00      50.6296
3968.00      50.6540
3970.00      50.8110
3972.00      51.2345
3974.00      52.3543
3976.00      52.2729
3978.00      50.4520
3980.00      43.2163
3982.00      41.1830
3984.00      41.0186
3986.00      41.7422
3988.00      43.0464
3990.00      49.2553
3992.00      52.0130
3994.00      52.0453
3996.00      50.5926
3998.00      49.2464
4000.00      47.6821
4002.00      46.1829
4004.00      46.1030
4006.00      46.3094
4008.00      41.4577
4010.00      39.3701
4012.00      38.8564
4014.00      38.3971
4016.00      37.6856
4018.00      40.0588
4020.00      36.3495
4022.00      34.7387
4024.00      33.1944
4026.00      29.9692
4028.00      31.0486
4030.00      39.1019
4032.00      43.3736
4034.00      44.6835
4036.00      45.8345
4038.00      46.7282
4040.00      46.3189
4042.00      46.2889
4044.00      45.7674
4046.00      46.6499
4048.00      47.4035
4050.00      43.5445
4052.00      34.5632
4054.00      29.4041
4056.00      26.9656
4058.00      26.2495
4060.00      28.3687
4062.00      36.8359
4064.00      42.3356
4066.00      44.2240
4068.00      44.7974
4070.00      43.8000
4072.00      42.7235
4074.00      42.7834
4076.00      44.7982
4078.00      45.5277
4080.00      46.1887
4082.00      46.1424
4084.00      42.9379
4086.00      43.4046
4088.00      42.9594
4090.00      38.3027
4092.00      38.7127
4094.00      42.5776
4096.00      37.7556
4098.00      31.3966
4100.00      36.5289
4102.00      36.3990
4104.00      33.6752
4106.00      36.7668
4108.00      43.4750
4110.00      43.6029
4112.00      41.6230
4114.00      40.1028
4116.00      40.8732
4118.00      38.6307
4120.00      37.9340
4122.00      38.0089
4124.00      41.0645
4126.00      40.9488
4128.00      43.0245
4130.00      42.0830
4132.00      36.9477
4134.00      29.2143
4136.00      20.4730
4138.00      17.8898
4140.00      19.3220
4142.00      25.7296
4144.00      33.7711
4146.00      42.7002
4148.00      42.8286
4150.00      41.0151
4152.00      37.9182
4154.00      35.4394
4156.00      34.6515
4158.00      36.1061
4160.00      37.5990
4162.00      39.2312
4164.00      42.2338
4166.00      37.5321
4168.00      36.9586
4170.00      35.6261
4172.00      33.9702
4174.00      34.0013
4176.00      39.1686
4178.00      40.4649
4180.00      42.2522
4182.00      42.6581
4184.00      44.3422
4186.00      43.6489
4188.00      44.1661
4190.00      45.6607
4192.00      47.8519
4194.00      48.3960
4196.00      49.5509
4198.00      50.2660
4200.00      45.2630
4202.00      41.5299
4204.00      37.9698
4206.00      36.3431
4208.00      35.0746
4210.00      38.7281
4212.00      40.2122
4214.00      37.4603
4216.00      33.4895
4218.00      33.9969
4220.00      33.6500
4222.00      35.6399
4224.00      40.7714
4226.00      45.4561
4228.00      45.6896
4230.00      44.2791
4232.00      43.3701
4234.00      43.4068
4236.00      44.4555
4238.00      43.5693
4240.00      44.8756
4242.00      45.2073
4244.00      41.7009
4246.00      41.2990
4248.00      41.9100
4250.00      41.5330
4252.00      42.1061
4254.00      44.9675
4256.00      46.1100
4258.00      46.4948
4260.00      47.3549
4262.00      47.3862
4264.00      47.4497
4266.00      43.9784
4268.00      40.4427
4270.00      36.3378
4272.00      36.2736
4274.00      35.5017
4276.00      37.7732
4278.00      38.1613
4280.00      36.9377
4282.00      30.4386
4284.00      24.4892
4286.00      23.6656
4288.00      24.3418
4290.00      29.3716
4292.00      36.3160
4294.00      43.0707
4296.00      43.4937
4298.00      45.0702
4300.00      45.4746
4302.00      42.5809
4304.00      41.6795
4306.00      43.2574
4308.00      42.9843
4310.00      42.9647
4312.00      44.9586
4314.00      45.3102
4316.00      44.6090
4318.00      45.5899
4320.00      43.6354
4322.00      42.8303
4324.00      43.9826
4326.00      43.9518
4328.00      44.0287
4330.00      46.0787
4332.00      46.3863
4334.00      40.1130
4336.00      39.3806
4338.00      35.4807
4340.00      33.5712
4342.00      30.6971
4344.00      35.4147
4346.00      37.1473
4348.00      39.8131
4350.00      41.3554
4352.00      44.6816
4354.00      46.2186
4356.00      45.4358
4358.00      45.3558
4360.00      45.5525
4362.00      43.8610
4364.00      36.0269
4366.00      32.7980
4368.00      28.5457
4370.00      20.9403
4372.00      17.8199
4374.00      24.2822
4376.00      28.4691
4378.00      32.2466
4380.00      35.1055
4382.00      35.3482
4384.00      35.9393
4386.00      35.8700
4388.00      35.6870
4390.00      39.3066
4392.00      43.6654
4394.00      44.0866
4396.00      44.8068
4398.00      45.1627
4400.00      45.8071
4402.00      44.9585
4404.00      40.8012
4406.00      38.7997
4408.00      38.3603
4410.00      34.2773
4412.00      28.4328
4414.00      29.3022
4416.00      30.5866
4418.00      27.8565
4420.00      26.4867
4422.00      26.4984
4424.00      23.7497
4426.00      17.7785
4428.00      13.4875
4430.00      14.9997
4432.00      20.9366
4434.00      26.7508
4436.00      30.7182
4438.00      32.5133
4440.00      31.2488
4442.00      24.7475
4444.00      16.7546
4446.00      10.7596
4448.00      11.6660
4450.00      13.1206
4452.00      17.8711
4454.00      25.6712
4456.00      32.1609
4458.00      30.0447
4460.00      30.2221
4462.00      30.4542
4464.00      29.6566
4466.00      29.2072
4468.00      32.7546
4470.00      29.8410
4472.00      23.1313
4474.00      20.0212
4476.00      17.5499
4478.00      14.7235
4480.00      15.5477
4482.00      18.8381
4484.00      18.3431
4486.00      16.0747
4488.00      12.7351
4490.00      10.0675
4492.00      7.15729
4494.00      4.20834
4496.00      1.87166
4498.00      1.43554
4500.00     0.864110
4502.00     0.261705
4504.00    0.0137519
4506.00   -0.0938757
4508.00   -0.0763014
4510.00   -0.0612918
4512.00   -0.0600152
4514.00   -0.0395486
4516.00    0.0360116
4518.00     0.236535
4520.00     0.712653
4522.00      1.81664
4524.00      3.43154
4526.00      5.42986
4528.00      7.92105
4530.00      11.0218
4532.00      14.0001
4534.00      16.3914
4536.00      19.1355
4538.00      21.9308
4540.00      23.3887
4542.00      24.9876
4544.00      27.2803
4546.00      29.1948
4548.00      30.6678
4550.00      32.6239
4552.00      34.2831
4554.00      35.2942
4556.00      36.0395
4558.00      36.8218
4560.00      37.5794
4562.00      38.2747
4564.00      38.9185
4566.00      39.6341
4568.00      40.1506
4570.00      40.4982
4572.00      40.9790
4574.00      41.4014
4576.00      41.6700
4578.00      41.9458
4580.00      42.3660
4582.00      42.4505
4584.00      42.6432
4586.00      42.7629
4588.00      42.9140
4590.00      42.3380
4592.00      41.8701
4594.00      41.9609
4596.00      41.8779
4598.00      41.7757
4600.00      42.2219
4602.00      43.0119
4604.00      42.9562
4606.00      42.6633
4608.00      42.9335
4610.00      43.2023
4612.00      43.3612
4614.00      43.5857
4616.00      44.4255
4618.00      44.4796
4620.00      44.4174
4622.00      44.4855
4624.00      44.5321
4626.00      44.4637
4628.00      44.5707
4630.00      44.7154
4632.00      44.6823
4634.00      44.3759
4636.00      43.7662
4638.00      43.6016
4640.00      43.6088
4642.00      43.6744
4644.00      43.8417
4646.00      44.0174
4648.00      43.1685
4650.00      42.9840
4652.00      42.9296
4654.00      43.0825
4656.00      43.4230
4658.00      44.3392
4660.00      44.6105
4662.00      44.7426
4664.00      44.7911
4666.00      44.4616
4668.00      43.2377
4670.00      37.4073
4672.00      29.4704
4674.00      26.8770
4676.00      27.1938
4678.00      28.3188
4680.00      33.7416
4682.00      41.8061
4684.00      44.6527
4686.00      38.8668
4688.00      30.8564
4690.00      27.0630
4692.00      26.8428
4694.00      27.0057
4696.00      32.1073
4698.00      40.2036
4700.00      44.4744
4702.00      44.6744
4704.00      44.6346
4706.00      44.7041
4708.00      44.6507
4710.00      44.7300
4712.00      44.7138
4714.00      44.5914
4716.00      44.4432
4718.00      44.4337
4720.00      44.3475
4722.00      44.1925
4724.00      44.1964
4726.00      44.1869
4728.00      44.0999
4730.00      44.0005
4732.00      44.0410
4734.00      43.8875
4736.00      43.8255
4738.00      43.3798
4740.00      42.8217
4742.00      42.1328
4744.00      42.1167
4746.00      42.1696
4748.00      42.4695
4750.00      43.0075
4752.00      43.6953
4754.00      43.6616
4756.00      43.4597
4758.00      43.4470
4760.00      43.4120
4762.00      43.3256
4764.00      43.2900
4766.00      43.2547
4768.00      43.1369
4770.00      42.7393
4772.00      42.3681
4774.00      42.2968
4776.00      42.2934
4778.00      42.2351
4780.00      42.5512
4782.00      42.7853
4784.00      42.8073
4786.00      42.7424
4788.00      42.6504
4790.00      42.5615
4792.00      42.5285
4794.00      42.4994
4796.00      42.5811
4798.00      42.6037
4800.00      42.5700
4802.00      42.5180
4804.00      42.5291
4806.00      42.4103
4808.00      42.3994
4810.00      42.4161
4812.00      42.3982
4814.00      42.3212
4816.00      42.2689
4818.00      42.0320
4820.00      41.7274
4822.00      41.6906
4824.00      39.9823
4826.00      35.3458
4828.00      30.4821
4830.00      30.5334
4832.00      29.7841
4834.00      27.8728
4836.00      27.0689
4838.00      30.5814
4840.00      29.8933
4842.00      29.3055
4844.00      31.8896
4846.00      36.9778
4848.00      39.0834
4850.00      39.4937
4852.00      38.5257
4854.00      36.8064
4856.00      36.8375
4858.00      36.9662
4860.00      37.4138
4862.00      39.4018
4864.00      41.7673
4866.00      42.0015
4868.00      41.9535
4870.00      41.9532
4872.00      41.9592
4874.00      41.8887
4876.00      41.8273
4878.00      41.8336
4880.00      41.7109
4882.00      41.5379
4884.00      41.2438
4886.00      41.1500
4888.00      41.1904
4890.00      41.2953
4892.00      41.4847
4894.00      41.8155
4896.00      41.9456
4898.00      41.9567
4900.00      41.9724
4902.00      41.9188
4904.00      41.8263
4906.00      41.7007
4908.00      41.5591
4910.00      41.4522
4912.00      41.3476
4914.00      41.3425
4916.00      41.3539
4918.00      41.4951
4920.00      41.5703
4922.00      41.6985
4924.00      41.6262
4926.00      41.6739
4928.00      41.5091
4930.00      41.3666
4932.00      41.3032
4934.00      41.3039
4936.00      41.2069
4938.00      41.1150
4940.00      41.0142
4942.00      40.9178
4944.00      37.9689
4946.00      31.4041
4948.00      24.2958
4950.00      18.9567
4952.00      15.6280
4954.00      17.7594
4956.00      24.0655
4958.00      31.3206
4960.00      36.8152
4962.00      40.3838
4964.00      40.7455
4966.00      40.6591
4968.00      40.6205
4970.00      40.6323
4972.00      40.6430
4974.00      40.5216
4976.00      40.5021
4978.00      40.4456
4980.00      40.3617
4982.00      40.2664
4984.00      40.2447
4986.00      40.3094
4988.00      40.2622
4990.00      40.2622
4992.00      40.3549
4994.00      40.3914
4996.00      40.2771
4998.00      39.8524
5000.00      39.7053
5002.00      39.6750
5004.00      39.6306
5006.00      39.3469
5008.00      39.5975
5010.00      39.6796
5012.00      39.5185
5014.00      39.3915
